Frequenz (Hz), Amplitude (V), FehlerAmp (V), Phase, FehlerPhase2,401400E+3	2,641928E-7	3,205674E-8	4,434570E-1	6,923228E-2
2,402900E+3	2,118587E-7	8,999588E-9	1,873400E-1	1,532165E-2
2,404400E+3	1,994860E-7	2,798666E-9	2,632537E-1	1,846605E-2
2,405900E+3	2,002696E-7	2,873241E-9	2,824715E-1	1,259360E-2
2,407400E+3	2,126463E-7	3,549203E-9	3,730127E-1	3,087110E-2
2,408900E+3	2,646470E-7	6,432246E-9	4,257534E-1	1,738797E-2
2,410400E+3	2,851919E-7	3,754752E-9	3,963423E-1	2,143196E-2
2,411900E+3	3,105169E-7	6,978814E-9	5,010519E-1	1,839867E-2
2,413400E+3	3,115070E-7	4,632816E-9	5,316368E-1	1,260411E-2
2,414900E+3	3,440783E-7	1,769379E-9	5,097107E-1	9,402598E-3
2,416400E+3	3,952514E-7	8,427270E-9	6,413079E-1	1,668516E-2
2,417900E+3	4,136579E-7	3,597913E-9	7,371217E-1	8,389755E-3
2,419400E+3	4,522401E-7	7,153933E-9	8,232942E-1	1,379238E-2
2,420900E+3	4,885404E-7	6,365234E-9	9,168973E-1	1,184392E-2
2,422400E+3	5,374742E-7	4,482465E-9	1,012906E+0	7,810958E-3
2,423900E+3	5,750880E-7	2,147797E-9	1,206950E+0	1,856859E-2
2,425400E+3	5,883977E-7	7,018283E-9	1,396124E+0	1,779935E-2
2,426900E+3	5,971860E-7	6,841217E-9	1,514040E+0	2,248232E-2
2,428400E+3	5,820284E-7	8,377421E-9	1,759164E+0	3,502022E-2
2,429900E+3	5,808996E-7	1,492055E-9	1,896567E+0	8,077336E-3
2,431400E+3	5,425340E-7	5,792580E-9	2,083140E+0	1,971048E-2
2,432900E+3	5,294047E-7	8,911563E-9	2,195859E+0	1,452410E-2
2,434400E+3	5,062528E-7	9,110615E-9	2,292320E+0	9,355162E-3
2,435900E+3	4,941642E-7	7,423429E-9	2,431574E+0	1,257297E-2
2,437400E+3	4,595466E-7	3,682219E-9	2,503970E+0	2,285450E-2
2,438900E+3	4,049175E-7	8,521330E-9	2,518968E+0	1,607137E-2
2,440400E+3	3,772383E-7	5,541021E-9	2,577400E+0	1,264422E-2
2,441900E+3	3,645882E-7	4,713518E-9	2,632068E+0	7,512688E-3
2,443400E+3	3,618715E-7	2,076548E-9	2,613113E+0	1,518680E-2
2,444900E+3	3,284601E-7	7,044475E-9	2,689349E+0	2,717886E-2
2,446400E+3	3,051617E-7	4,584781E-9	2,723431E+0	1,800700E-2
2,447900E+3	3,159633E-7	6,057875E-9	2,739805E+0	1,545562E-2
2,449400E+3	3,510484E-7	1,179255E-8	2,763316E+0	5,838677E-2
2,450900E+3	2,161586E-7	1,017186E-8	1,638520E+0	5,844411E-1
